17 45
2331.513 LNC
4
  555320.560  1849394.490
  555356.600  1849437.020
  555300.860  1849451.610
  555281.400  1849418.360
end
20 45
7682.649 L/n
16
  555402.400  1849361.510
  555421.960  1849356.020
  555421.960  1849356.020
  555411.570  1849423.970
  555411.570  1849423.970
  555391.560  1849427.870
  555391.560  1849427.870
  555356.600  1849437.020
  555356.600  1849437.020
  555320.560  1849394.490
  555320.560  1849394.490
  555313.530  1849364.960
  555313.530  1849364.960
  555394.810  1849325.020
  555394.810  1849325.020
  555402.400  1849361.510
end
14 45
3493.297 L/n
8
  555281.400  1849418.360
  555300.860  1849451.610
  555300.860  1849451.610
  555213.960  1849485.930
  555213.960  1849485.930
  555198.570  1849450.500
  555198.570  1849450.500
  555281.400  1849418.360
end
22 45
41365.768 L/n
31
  555320.560  1849394.490
  555281.400  1849418.360
  555281.400  1849418.360
  555198.570  1849450.500
  555198.570  1849450.500
  555158.640  1849465.990
  555158.640  1849465.990
  555146.180  1849471.490
  555146.180  1849471.490
  555112.420  1849469.560
  555112.420  1849469.560
  555075.040  1849493.440
  555075.040  1849493.440
  555059.080  1849480.490
  555091.190  1849432.620
  555091.190  1849432.620
  555085.970  1849423.280
  555085.970  1849423.280
  555066.420  1849388.290
  555066.420  1849388.290
  555075.520  1849307.170
  555075.520  1849307.170
  555278.250  1849261.590
  555278.250  1849261.590
  555327.930  1849294.910
  555327.930  1849294.910
  555343.900  1849302.330
  555336.740  1849324.440
  555313.530  1849364.960
  555313.530  1849364.960
  555320.560  1849394.490
end
