30 47
3756.653 LNC
5
  554691.290  1848783.310
  554733.140  1848793.990
  554707.910  1848874.000
  554683.570  1848865.510
  554659.630  1848883.480
end
31 47
5517.977 L/n
16
  554733.140  1848793.990
  554742.730  1848796.440
  554742.730  1848796.440
  554796.280  1848823.510
  554796.280  1848823.510
  554805.670  1848847.440
  554805.670  1848847.440
  554774.170  1848880.500
  554774.170  1848880.500
  554770.630  1848880.270
  554770.630  1848880.270
  554715.530  1848876.660
  554715.530  1848876.660
  554707.910  1848874.000
  554707.910  1848874.000
  554733.140  1848793.990
end
26 47
8328.528 L/n
26
  554771.970  1848900.060
  554770.630  1848880.270
  554770.630  1848880.270
  554715.530  1848876.660
  554715.530  1848876.660
  554707.910  1848874.000
  554707.910  1848874.000
  554683.570  1848865.510
  554683.570  1848865.510
  554659.630  1848883.480
  554659.630  1848883.480
  554644.390  1848894.920
  554644.390  1848894.920
  554626.380  1848903.590
  554626.380  1848903.590
  554621.890  1848784.050
  554621.890  1848784.050
  554594.920  1848783.980
  554594.920  1848783.980
  554600.100  1848837.250
  554600.100  1848837.250
  554598.570  1848913.190
  554600.530  1848938.340
  554653.920  1848919.490
  554691.650  1848908.410
  554771.970  1848900.060
end
26 47
8328.528 L/n
26
  554771.970  1848900.060
  554770.630  1848880.270
  554770.630  1848880.270
  554715.530  1848876.660
  554715.530  1848876.660
  554707.910  1848874.000
  554707.910  1848874.000
  554683.570  1848865.510
  554683.570  1848865.510
  554659.630  1848883.480
  554659.630  1848883.480
  554644.390  1848894.920
  554644.390  1848894.920
  554626.380  1848903.590
  554626.380  1848903.590
  554621.890  1848784.050
  554621.890  1848784.050
  554594.920  1848783.980
  554594.920  1848783.980
  554600.100  1848837.250
  554600.100  1848837.250
  554598.570  1848913.190
  554600.530  1848938.340
  554653.920  1848919.490
  554691.650  1848908.410
  554771.970  1848900.060
end
28 47
3668.111 L/n
16
  554674.540  1848777.670
  554675.290  1848779.230
  554675.290  1848779.230
  554691.290  1848783.310
  554691.290  1848783.310
  554659.630  1848883.480
  554659.630  1848883.480
  554644.390  1848894.920
  554644.390  1848894.920
  554626.380  1848903.590
  554626.380  1848903.590
  554641.340  1848831.400
  554641.340  1848831.400
  554655.650  1848789.670
  554655.650  1848789.670
  554674.540  1848777.670
end
