7 51
8762.808 L/n
13
  552062.160  1848208.310
  552062.440  1848208.340
  552140.900  1848208.600
  552157.180  1848217.110
  552170.820  1848264.520
  552181.270  1848264.700
  552181.540  1848264.650
  552197.230  1848333.440
  552163.780  1848347.310
  552131.370  1848338.340
  552145.750  1848256.390
  552054.260  1848247.160
  552055.240  1848242.360
end
5 51
12487.982 L/n
19
  552338.430  1848233.700
  552338.570  1848244.720
  552338.570  1848244.720
  552312.690  1848272.820
  552317.160  1848291.700
  552285.630  1848300.410
  552260.880  1848306.500
  552237.210  1848313.940
  552359.840  1848341.660
  552327.270  1848367.260
  552299.860  1848363.850
  552240.610  1848344.480
  552207.660  1848347.360
  552207.660  1848347.360
  552197.230  1848333.440
  552197.230  1848333.440
  552181.540  1848264.650
  552181.540  1848264.650
  552338.430  1848233.700
end
3 51
30519.054 L/n
34
  552011.860  1848330.600
  552028.340  1848300.030
  551991.700  1848300.160
  551991.700  1848300.160
  551998.950  1848282.070
  551998.950  1848282.070
  552017.320  1848283.850
  552042.620  1848279.210
  552042.620  1848279.210
  552054.260  1848247.160
  552054.260  1848247.160
  552145.750  1848256.390
  552131.370  1848338.340
  552163.780  1848347.310
  552163.780  1848347.310
  552197.230  1848333.440
  552197.230  1848333.440
  552207.660  1848347.360
  552207.660  1848347.360
  552119.730  1848462.570
  552119.730  1848462.570
  552079.590  1848446.390
  552079.590  1848446.390
  552073.070  1848460.770
  552073.070  1848460.770
  551999.240  1848430.960
  551999.240  1848430.960
  551983.100  1848408.410
  551980.830  1848376.740
  551986.050  1848340.610
  551986.050  1848340.610
  551987.790  1848327.320
  551987.790  1848327.320
  552011.860  1848330.600
end
3 51
30519.054 L/n
34
  552011.860  1848330.600
  552028.340  1848300.030
  551991.700  1848300.160
  551991.700  1848300.160
  551998.950  1848282.070
  551998.950  1848282.070
  552017.320  1848283.850
  552042.620  1848279.210
  552042.620  1848279.210
  552054.260  1848247.160
  552054.260  1848247.160
  552145.750  1848256.390
  552131.370  1848338.340
  552163.780  1848347.310
  552163.780  1848347.310
  552197.230  1848333.440
  552197.230  1848333.440
  552207.660  1848347.360
  552207.660  1848347.360
  552119.730  1848462.570
  552119.730  1848462.570
  552079.590  1848446.390
  552079.590  1848446.390
  552073.070  1848460.770
  552073.070  1848460.770
  551999.240  1848430.960
  551999.240  1848430.960
  551983.100  1848408.410
  551980.830  1848376.740
  551986.050  1848340.610
  551986.050  1848340.610
  551987.790  1848327.320
  551987.790  1848327.320
  552011.860  1848330.600
end
6 51
1736.856 L/n
14
  552055.240  1848242.360
  552054.260  1848247.160
  552054.260  1848247.160
  552042.620  1848279.210
  552042.620  1848279.210
  552017.320  1848283.850
  551998.950  1848282.070
  551998.950  1848282.070
  552004.140  1848269.100
  552004.140  1848269.100
  552018.490  1848238.070
  552018.510  1848237.530
  552018.510  1848237.530
  552055.240  1848242.360
end
8 51
1352.356 L/n
8
  552019.980  1848204.000
  552062.160  1848208.310
  552062.160  1848208.310
  552055.240  1848242.360
  552055.240  1848242.360
  552018.510  1848237.530
  552018.510  1848237.530
  552019.980  1848204.000
end
